#wlen[nm]   abs coeff [m^-1] for pure water attenuation coeff [m^-1] for clearest ocean water
200         3.07                            3.14
210         1.99                            2.05
220         1.31                            1.36
230         0.927                           0.968
240         0.720                           0.754
250         0.559                           0.588
260         0.457                           0.481
270         0.373                           0.394
280         0.288                           0.306
290         0.215                           0.230
300         0.141                           0.154
310         0.105                           0.116
320         0.0844                          0.0944
330         0.0678                          0.0765
340         0.0561                          0.0637
350         0.0463                          0.0530
360         0.0379                          0.0439
370         0.0300                          0.0353
380         0.0220                          0.0267
390         0.0191                          0.0233
400         0.0171                          0.0209
410         0.0162                          0.0196
420         0.0153                          0.0184
430         0.0144                          0.0172
440         0.0145                          0.0170
450         0.0145                          0.0168
460         0.0156                          0.0176
470         0.0156                          0.0175
480         0.0176                          0.0194
490         0.0196                          0.0212
500         0.0257                          0.0271
510         0.0357                          0.0370
520         0.0477                          0.0489
530         0.0507                          0.0519
540         0.0558                          0.0568
550         0.0638                          0.0648
560         0.0708                          0.0717
570         0.0799                          0.0807
580         0.108                           0.109
590         0.157                           0.158
600         0.244                           0.245
610         0.289                           0.290
620         0.309                           0.310
630         0.319                           0.320
640         0.329                           0.330
650         0.349                           0.350
660         0.400                           0.400
670         0.430                           0.430
680         0.450                           0.450
690         0.500                           0.500
700         0.650                           0.650
710         0.839                           0.834
720         1.169                           1.170
730         1.799                           1.800
740         2.38                            2.380
750         2.47                            2.47
760         2.55                            2.55
770         2.51                            2.51
780         2.36                            2.36
790         2.16                            2.16
800         2.07                            2.07
